BITPIX  =                    8  /  8-bit ASCII characters                       
NAXIS   =                    1  /  Number of Image Dimensions                   
NAXIS1  =                 2102  /  Length of axis                               
ORIGIN  = 'NOAO-IRAF: WTEXTIMAGE'  /
IRAF-MAX=                   0.  /  Max image pixel (out of date)                
IRAF-MIN=                   0.  /  Min image pixel (out of date)                
IRAF-B/P=                   32  /  Image bits per pixel                         
IRAFTYPE= 'REAL FLOATING     '  /  Image datatype                              
OBJECT  = '1WGAJ1011_9+5424  '  /                                              
FILENAME= 'STAR058NOFLUXCALIB.FITS'  /
FORMAT  = '5G14.7            '  /  Text line format                            
EXTEND  =                    F / File may contain extensions                    
ORIGIN  = 'NOAO-IRAF FITS Image Kernel July 2003' / FITS file originator        
DATE    = '2019-04-29T22:56:26' / Date FITS file was generated                  
IRAF-TLM= '2019-04-29T22:56:26' / Time of last modification                     
OBJECT  = '1WGAJ1011_9+5424'   / Name of the object observed                    
DATE-OBS= '2019-04-24T23:13:38.887' / Start of exposure                         
DATE_OBS= '2019-04-24T23:13:38.887' / Start of exposure                         
OBSERVAT= 'LaPalma '                                                            
TELESCOP= 'NOT     '                                                            
INSTRUME= 'ALFOSC_FASU'                                                         
DETNAME = 'E2V CCD 231-42 2kx2k'                                                
CHIPID  = '12234-10-01'                                                         
CREATOR = 'CCD3COMM'                                                            
XOVERSC = '50      '                                                            
YOVERSC = '50      '                                                            
DATE-AVG= '2019-04-24T23:21:08.847' / Mid-point of exposure                     
ALAPRTNM= 'Slit_0.75'          /                                                
ALAPRTID=                  513 / ALFOSC aperture wheel. ID                      
ALAPRPOS=                    4 / ALFOSC aperture wheel. Slot Position           
ALAPRSTP=               159411 / ALFOSC aperture wheel. Step Position           
ALAPRORI= 'Horizontal'         / ALFOSC aperture wheel. Element Orientation     
ALAPRALG= 'Y       '           / ALFOSC aperture wheel. Aperture aligned        
ALFLTNM = 'Open    '           / ALFOSC filter wheel. Name                      
ALFLTID =                 1005 / ALFOSC filter wheel. NOT filter number         
ALFLTPOS=                    7 / ALFOSC filter wheel. Slot Position             
ALFLTSTP=               281250 / ALFOSC filter wheel. Step Position             
ALFLTORI= 'Any     '           / ALFOSC filter wheel. Element Orientation       
ALGRNM  = 'Grism_#8'           / ALFOSC grism wheel. Name                       
ALGRID  =                  406 / ALFOSC grism wheel. ID                         
ALGRPOS =                    3 / ALFOSC grism wheel. Slot Position              
ALGRSTP =               119601 / ALFOSC grism wheel. Step Position              
ALGRORI = 'Ver90   '           / ALFOSC grism wheel. Element Orientation        
ALGRALG = 'Y       '           / ALFOSC grism wheel. Grism aligned              
ALFOCUS =                 1610 / ALFOSC camera focus position                   
ALCENWAV= 'N/A     '           / ALFOSC spectroscopy center wavelength          
FAFLTNM = 'Open    '           / FASU filter wheel 1/A Name                     
FAFLTID =                 1001 / FASU filter wheel 1/A NOT filter number        
FAFLTPOS=                    0 / FASU filter wheel 1/A Slot position            
FBFLTNM = 'Open    '           / FASU filter wheel 2/B Name                     
FBFLTID =                 1002 / FASU filter wheel 2/B NOT filter number        
FBFLTPOS=                    0 / FASU filter wheel 2/B Slot position            
CLAMP1  =                    0 / FASU calibration lamp 1 is off                 
CLAMPNM1= ' He     '           / FASU calibration lamp 1 name                   
CLAMPID1= 'OSRAM He/10 inst. 31-03-2015' / FASU calibration lamp 1 id           
CLAMP2  =                    0 / FASU calibration lamp 2 is off                 
CLAMPNM2= ' Ne     '           / FASU calibration lamp 2 name                   
CLAMPID2= 'OSRAM Ne/10 inst. 05-09-2016' / FASU calibration lamp 2 id           
CLAMP3  =                    0 / FASU calibration lamp 3 is off                 
CLAMPNM3= ' Halogen'           / FASU calibration lamp 3 name                   
CLAMPID3= 'OSRAM 64415 w448 10W 12V' / FASU calibration lamp 3 id               
CLAMP4  =                    0 / FASU calibration lamp 4 is off                 
CLAMPNM4= ' ThAr Holl'         / FASU calibration lamp 4 name                   
CLAMPID4= 'Cathodeon 3UAXTh S/N B77779' / FASU calibration lamp 4 id            
CMIRROR =                    0 / FASU calibration mirror is out                 
FARETARD= 'OUT     '           / Position of Retarder Plate                     
FAPOLID =                  620 / FAPOL Retarder Plate ID                        
FARETANG= '-9999   '           / Retarder Plate Angle                           
ALAPRSLX=                1050. / Current aperture detector X pos.               
ALAPRSLY=              1056.87 / Current aperture detector Y pos.               
BFLMP1  =                    0 / B. lamp 1 (on/off)                             
BFLMP1ID= 'Model 64614 OSRAM 12 V 75W G5,3. Installed 11-07-2008.' / Baffle lamp
BFLMP1NM= 'Halogen '           / Baffle lamp 1 verbose name                     
BFLMP2  =                    0 / B. lamp 2 (on/off)                             
BFLMP2ID= 'Oriel Pencil Shape spectral lamp 6030. Installed 2008.' / Baffle lamp
BFLMP2NM= 'Argon   '           / Baffle lamp 2 verbose name                     
BFLMP3  =                    0 / B. lamp 3 (on/off)                             
BFLMP3ID= 'Oriel Pencil Shape spectral lamp 6033. Installed 2004.' / Baffle lamp
BFLMP3NM= 'Xenon   '           / Baffle lamp 3 verbose name                     
UT      =            23.227222 / TCS UTC at start (2019-04-24 23:13:38)         
ST      =      12.215277777778 / Sidereal time at start (12:12:55)              
RA      =      152.98905701883 / Right ascention at start (10h:11m:57.3s)       
DEC     =      54.413184109235 / Declination at start (54d:24m:47.4s)           
EQUINOX =                2000. / Equinox of RA and DEC                          
RADECSYS= 'FK5     '                                                            
TELALT  =        56.6434783936 / Telescope altitude                             
AZIMUTH =       148.1603851318 / Telescope azimuth                              
AIRMASS =      1.1972243302458 / Airmass at start (sec(z))                      
FIELD   =             129.4613 / Field rotation at start                        
ROTPOS  =               1.9043 / Rotator angle at start                         
TELFOCUS=                22426 / Telescope focus at start                       
TRACKMOD= 'normal  '           / Tracking mode                                  
DTRCK_RA=                   0. / Diff tracking rate in RA in asec per hour      
DTRCK_DE=                   0. / Diff tracking rate DEC in asec per hour        
CCDPROBE= 'park    '           / CCD probe                                      
ADCARM  = 'OUT     '           / ADC arm position                               
ADCMODE = '1       '           / ADC mode                                       
ADC1ANG =            -80.07129 / ADC prism 1 angle                              
ADC2ANG =              80.0154 / ADC prism 2 angle                              
ADC1ENC =                  -99 / ADC prism 1 encoder position                   
ADC2ENC =                  -99 / ADC prism 2 encoder position                   
AUSTATUS=                    3 / Autoguider status                              
AUXPOS  =                15791 / Autoguider probe X position                    
AUYPOS  =                22983 / Autoguider probe Y position                    
AUBXXPOS=                  278 / Autoguider box X position                      
AUBXYPOS=                  248 / Autoguider box Y position                      
AUBXSIZE=                   11 / Autoguider star box size                       
AUSBXPOS=                  100 / Autoguider sky box X position                  
AUSBYPOS=                  400 / Autoguider sky box Y position                  
AUFOCUS =                  475 / Autoguider focus at start                      
AUFLTID =                    2 / Autoguider filter ID number                    
AUFLTNM = 'open    '           / Autoguider filter name                         
BOXMORA =                   0. / Box-motion RA rate                             
BOXMODEC=                   0. / Box-motion DEC rate                            
TCSTGT  = '1WGAJ1011_9+5424'   / TCS Catalogue Entry                            
OBJRA   =        10.1994916667 / Catalogue RA in decimal hours                  
OBJDEC  =         54.412583332 / Catalogue DEC in decimal deg.                  
OBJPMRA =                   0. / Catalogue proper motion in RA                  
OBJPMDEC=                   0. / Catalogue proper motion in DEC                 
OBJEQUIN=                2000. / Catalogue equinox for coordinates              
OBSGEO-X=         5327395.9638 / Cartesian Coordinate X                         
OBSGEO-Y=        -1719170.4876 / Cartesian Coordinate Y                         
OBSGEO-Z=          3051490.766 / Cartesian Coordinate Z                         
QCRDATE = 'UNDEFINED'          / Detector rotation center measurement date      
OBSERVER= 'Nicholas Jannsen'   / Observer name                                  
IMAGETYP= 'OBJECT  '           / Image type                                     
OBS_MODE= 'SPECTROSCOPY'       / Type of observation                            
IMAGECAT= 'SCIENCE '           / Image category                                 
PROPID  = '59-299  '           / Proposal ID                                    
PROPTITL= 'CAT service time'   / Proposal title                                 
PINAME  = 'CAT     '           / PI name                                        
GROUPID = 'casares_456'        / Observing group identification                 
BLOCKID = '1wgaj1011_9'        / Observing block identification                 
SEQID   = 'seq1    '           / Observing block sequence number                
FILENAME= 'ALCd240110.fits'    / Filename                                       
EXPTIME =                 900. / exposure time                                  
ROTATE  = '180     '           / Rotation of image                              
MIRROR_X=                    F / Image is mirrored across horizontal axis       
MIRROR_Y=                    F / Image is mirrored across vertical axis         
AMPLMODE= 'D       '           / Amplifier mode                                 
DETMODE0=                    8 / Detector mode                                  
DETWIN1 = '[801:1300, 1:2102]'                                                  
CCDTEMP =              -120.01 / Detector temperature                           
LN2TEMP =              -179.03 / LN2 temperature                                
P_DEWAR =             1.47E-06 / Dewar pressure                                 
SHSTAT  = 'OPEN    '           / Shutter status                                 
DETXBIN =                    1 / X binning                                      
DETYBIN =                    1 / T binning                                      
NWINDOWS=                    1                                                  
TSAM    =                  172 / Clamp and sample time in clocks                
FPIX    =                  200 / Readout speed in pix/sec                       
VSHI    =                  10.                                                  
VSLO    =                   0.                                                  
VPHI    =                  10.                                                  
VPLO    =                 -0.5                                                  
BUNIT   = 'count   '                                                            
CCDNAME = 'CCD14   '                                                            
CTYPE1  = 'LINEAR  '           / Coordinate type of 1st axis                    
CRVAL1  =     5625.72194982451 / X at reference point                           
CUNIT1  = 'pixel   '           / Unit of 1st axis                               
CUNIT2  = 'pixel   '           / Unit of 2nd axis                               
CRPIX1  =                   1. / Reference pixel on 1st axis                    
CDELT1  =      1.4198432601757 / Increment on 1st axis                          
DARK    =                   0. / e-/hr/pix                                      
QCDDATE = 'UNDEFINED'          / Detector characteristics reference date        
RDNOISE =                  4.3 / e-                                             
GAIN    =                 0.16 / e-/ADU                                         
IMAGEID =                    1                                                  
ZERO0-3 =                -5600                                                  
GAIN0-3 =                   1.                                                  
VBHA0-3 =                  28. / Bias high A (V)                                
VBHB0-3 =                  17. / Bias high B (V)                                
VBHC0-3 =                  28. / Bias high C (V)                                
VBLA0-3 =                  2.5 / Bias low A (V)                                 
VBLB0-3 =                   0. / Bias low B (V)                                 
CCDSUM  = '1 1     '                                                            
WCSDIM  =                    1                                                  
CD1_1   =      1.4198432601757                                                  
LTM1_1  =                   1.                                                  
WAT0_001= 'system=equispec'                                                     
WAT1_001= 'wtype=linear label=Wavelength units=angstroms'                       
TRIM    = 'Apr 29 13:23 Trim data section is [1:500,1:2102]'                    
ILLUMCOR= 'Apr 29 13:23 Illumination image is IllumMaster.fits[1] with scale=1.'
CCDSEC  = '[1:500,1:2102]'                                                      
BIASSEC = '[1:500,1:2102]'                                                      
CCDMEAN =             14714.93                                                  
CCDMEANT=           1241011388                                                  
CCDPROC = 'Apr 29 13:23 CCD processing done'                                    
BANDID1 = 'spectrum - background none, weights none, clean no'                  
APNUM1  = '1 1 246.44 252.92'                                                   
DC-FLAG =                    0                                                  
DCLOG1  = 'REFSPEC1 = ALCd240109.fits'                                          
END                                                                             
                                                                                
                                                                                
                                                                                
                                                                                
                                                                                
                                                                                
                                                                                
                                                                                
                                                                                
                                                                                
                                                                                
                                                                                
                                                                                
                                                                                
                                                                                
                                                                                
                                                                                
                                                                                
                                                                                
                                                                                
                                                                                
5625.72194982452  80533.67
5627.14179308469  85588.65
5628.56163634487  85619.73
5629.98147960504  85564.27
5631.40132286522  85573.5
5632.82116612539  85543.16
5634.24100938557  85465.59
5635.66085264575  85493.28
5637.08069590592  85424.13
5638.5005391661  85446.5
5639.92038242627  85422.73
5641.34022568645  85368.52
5642.76006894662  85516.74
5644.1799122068  85505.69
5645.59975546698  85529.88
5647.01959872715  85526.95
5648.43944198733  85523.77
5649.8592852475  85403.87
5651.27912850768  85306.79
5652.69897176785  85421.45
5654.11881502803  85474.34
5655.53865828821  85389.43
5656.95850154838  85396.22
5658.37834480856  85377.38
5659.79818806873  85485.41
5661.21803132891  85359.48
5662.63787458908  85393.64
5664.05771784926  85371.75
5665.47756110944  85398.92
5666.89740436961  85407.63
5668.31724762979  85319.97
5669.73709088996  85291.14
5671.15693415014  85273.27
5672.57677741031  85506.12
5673.99662067049  85859.8
5675.41646393067  85793.55
5676.83630719084  85861.22
5678.25615045102  85931.91
5679.67599371119  86054.
5681.09583697137  85652.02
5682.51568023154  85867.35
5683.93552349172  85724.38
5685.35536675189  85852.33
5686.77521001207  85804.32
5688.19505327225  85860.05
5689.61489653242  85819.39
5691.0347397926  85840.76
5692.45458305277  85831.66
5693.87442631295  85729.17
5695.29426957313  85924.8
5696.7141128333  85861.82
5698.13395609348  85769.75
5699.55379935365  85853.48
5700.97364261383  85890.74
5702.393485874  85866.62
5703.81332913418  85824.06
5705.23317239435  85643.82
5706.65301565453  85664.52
5708.07285891471  85799.39
5709.49270217488  85926.68
5710.91254543506  85867.31
5712.33238869523  85931.59
5713.75223195541  85554.3
5715.17207521558  85636.52
5716.59191847576  85660.43
5718.01176173594  85688.84
5719.43160499611  85780.97
5720.85144825629  85665.32
5722.27129151646  85546.74
5723.69113477664  85644.35
5725.11097803681  85543.64
5726.53082129699  85639.34
5727.95066455717  85598.27
5729.37050781734  85583.65
5730.79035107752  85649.79
5732.21019433769  85691.47
5733.63003759787  85653.61
5735.04988085804  85583.66
5736.46972411822  85545.59
5737.8895673784  85570.66
5739.30941063857  85536.99
5740.72925389875  85528.28
5742.14909715892  85413.48
5743.5689404191  85519.52
5744.98878367927  85627.43
5746.40862693945  85537.67
5747.82847019963  85402.72
5749.2483134598  85692.98
5750.66815671998  85641.05
5752.08799998015  85520.37
5753.50784324033  85441.35
5754.9276865005  85626.9
5756.34752976068  85711.46
5757.76737302086  85373.84
5759.18721628103  85415.81
5760.60705954121  85424.08
5762.02690280138  85607.61
5763.44674606156  85414.49
5764.86658932173  85280.84
5766.28643258191  85244.39
5767.70627584209  85259.25
5769.12611910226  85343.58
5770.54596236244  85407.28
5771.96580562261  85301.84
5773.38564888279  85299.52
5774.80549214297  85316.8
5776.22533540314  85343.9
5777.64517866332  85313.05
5779.06502192349  85391.11
5780.48486518367  85326.72
5781.90470844384  85276.6
5783.32455170402  85236.09
5784.74439496419  85228.
5786.16423822437  85246.66
5787.58408148455  85308.99
5789.00392474472  85313.84
5790.4237680049  85291.64
5791.84361126507  85334.66
5793.26345452525  85259.76
5794.68329778542  85264.34
5796.1031410456  85233.18
5797.52298430578  85180.42
5798.94282756595  85138.65
5800.36267082613  85130.27
5801.7825140863  85113.31
5803.20235734648  85197.48
5804.62220060665  85332.19
5806.04204386683  85258.55
5807.46188712701  85259.09
5808.88173038718  85230.06
5810.30157364736  85267.25
5811.72141690753  85160.84
5813.14126016771  85120.59
5814.56110342788  85158.18
5815.98094668806  85138.37
5817.40078994824  85171.73
5818.82063320841  85126.35
5820.24047646859  85001.34
5821.66031972876  85047.2
5823.08016298894  84932.59
5824.50000624911  84888.86
5825.91984950929  84909.24
5827.33969276947  84969.52
5828.75953602964  84884.27
5830.17937928982  84926.28
5831.59922254999  85123.26
5833.01906581017  85024.66
5834.43890907034  85004.56
5835.85875233052  84982.8
5837.2785955907  84932.77
5838.69843885087  84829.5
5840.11828211105  84864.75
5841.53812537122  84993.36
5842.9579686314  84840.93
5844.37781189158  84923.45
5845.79765515175  85008.84
5847.21749841193  84852.84
5848.6373416721  84831.23
5850.05718493228  84868.95
5851.47702819245  84941.17
5852.89687145263  84733.44
5854.3167147128  84662.12
5855.73655797298  84622.2
5857.15640123316  84675.85
5858.57624449333  84746.45
5859.99608775351  84692.8
5861.41593101368  84725.64
5862.83577427386  84772.92
5864.25561753403  84753.95
5865.67546079421  84907.05
5867.09530405439  84823.
5868.51514731456  84659.35
5869.93499057474  84828.04
5871.35483383491  84741.11
5872.77467709509  84733.23
5874.19452035526  84745.36
5875.61436361544  84698.77
5877.03420687561  84790.72
5878.45405013579  84749.19
5879.87389339597  84769.83
5881.29373665614  84530.2
5882.71357991632  84524.45
5884.13342317649  84432.31
5885.55326643667  84501.1
5886.97310969684  84721.2
5888.39295295702  85882.63
5889.8127962172  86366.05
5891.23263947737  86199.
5892.65248273755  85083.23
5894.07232599772  85493.02
5895.4921692579  86049.61
5896.91201251807  85824.93
5898.33185577825  85209.02
5899.75169903843  84449.84
5901.1715422986  84412.34
5902.59138555878  84455.16
5904.01122881895  84518.55
5905.43107207913  84365.92
5906.8509153393  84360.34
5908.27075859948  84242.28
5909.69060185966  84336.93
5911.11044511983  84317.51
5912.53028838001  84415.48
5913.95013164018  84423.42
5915.36997490036  84346.6
5916.78981816054  84368.33
5918.20966142071  84252.91
5919.62950468089  84168.93
5921.04934794106  84201.91
5922.46919120124  84229.9
5923.88903446141  84274.14
5925.30887772159  84254.3
5926.72872098176  84236.7
5928.14856424194  84249.37
5929.56840750212  84232.
5930.98825076229  84225.23
5932.40809402247  84225.18
5933.82793728264  84347.57
5935.24778054282  84285.3
5936.66762380299  84146.3
5938.08746706317  84195.63
5939.50731032334  84239.09
5940.92715358352  84209.29
5942.3469968437  84342.52
5943.76684010387  84215.85
5945.18668336405  84208.31
5946.60652662422  84216.22
5948.0263698844  84101.38
5949.44621314458  84070.29
5950.86605640475  84086.23
5952.28589966493  84200.16
5953.7057429251  84248.21
5955.12558618528  84249.48
5956.54542944545  84079.38
5957.96527270563  84127.27
5959.38511596581  84086.38
5960.80495922598  83995.27
5962.22480248616  84099.98
5963.64464574633  84024.91
5965.06448900651  84073.12
5966.48433226668  84087.73
5967.90417552686  84052.81
5969.32401878704  84072.2
5970.74386204721  84100.09
5972.16370530739  83979.86
5973.58354856756  84026.2
5975.00339182774  84053.1
5976.42323508791  83982.8
5977.84307834809  84058.24
5979.26292160827  83948.29
5980.68276486844  84023.58
5982.10260812862  83955.48
5983.52245138879  83796.8
5984.94229464897  83862.07
5986.36213790914  83925.66
5987.78198116932  84048.93
5989.2018244295  84009.76
5990.62166768967  83798.49
5992.04151094985  83843.33
5993.46135421002  83833.45
5994.8811974702  83904.77
5996.30104073037  83996.13
5997.72088399055  84126.45
5999.14072725073  83998.29
6000.5605705109  83944.05
6001.98041377108  83922.34
6003.40025703125  83914.08
6004.82010029143  83935.55
6006.2399435516  83943.62
6007.65978681178  83937.17
6009.07963007195  83879.52
6010.49947333213  83874.13
6011.91931659231  83805.08
6013.33915985248  83758.45
6014.75900311266  83658.16
6016.17884637283  83586.35
6017.59868963301  83785.33
6019.01853289319  83712.11
6020.43837615336  83539.76
6021.85821941354  83666.79
6023.27806267371  83711.2
6024.69790593389  83764.48
6026.11774919406  83594.87
6027.53759245424  83643.33
6028.95743571442  83820.51
6030.37727897459  83706.98
6031.79712223477  83578.89
6033.21696549494  83670.87
6034.63680875512  83643.6
6036.05665201529  83636.41
6037.47649527547  83670.05
6038.89633853564  83734.15
6040.31618179582  83594.21
6041.736025056  83637.98
6043.15586831617  83565.04
6044.57571157635  83523.66
6045.99555483652  83503.72
6047.4153980967  83501.57
6048.83524135688  83500.91
6050.25508461705  83483.71
6051.67492787723  83587.34
6053.0947711374  83517.59
6054.51461439758  83602.63
6055.93445765775  83532.91
6057.35430091793  83658.55
6058.7741441781  83566.72
6060.19398743828  83444.12
6061.61383069846  83482.69
6063.03367395863  83457.08
6064.45351721881  83453.26
6065.87336047898  83615.67
6067.29320373916  83602.73
6068.71304699933  83647.44
6070.13289025951  83688.19
6071.55273351969  83448.93
6072.97257677986  83321.36
6074.39242004004  83393.75
6075.81226330021  83566.42
6077.23210656039  83439.3
6078.65194982056  83348.29
6080.07179308074  83475.63
6081.49163634092  83408.7
6082.91147960109  83475.07
6084.33132286127  83393.69
6085.75116612144  83371.06
6087.17100938162  83396.82
6088.59085264179  83418.32
6090.01069590197  83312.63
6091.43053916215  83231.8
6092.85038242232  83338.25
6094.2702256825  83291.16
6095.69006894267  83359.57
6097.10991220285  83414.54
6098.52975546303  83363.58
6099.9495987232  83278.52
6101.36944198338  83258.45
6102.78928524355  83328.23
6104.20912850373  83491.7
6105.6289717639  83412.39
6107.04881502408  83333.27
6108.46865828425  83220.52
6109.88850154443  83326.78
6111.30834480461  83254.38
6112.72818806478  83245.19
6114.14803132496  83124.69
6115.56787458513  83160.42
6116.98771784531  83227.45
6118.40756110549  83212.2
6119.82740436566  83312.05
6121.24724762584  83234.95
6122.66709088601  83160.16
6124.08693414619  83164.61
6125.50677740636  83049.55
6126.92662066654  83120.44
6128.34646392671  83115.26
6129.76630718689  83074.97
6131.18615044707  83137.52
6132.60599370724  83185.46
6134.02583696742  83064.83
6135.44568022759  83052.
6136.86552348777  83017.68
6138.28536674794  82976.64
6139.70521000812  83095.35
6141.1250532683  83219.96
6142.54489652847  82938.48
6143.96473978865  83121.05
6145.38458304882  83100.86
6146.804426309  82984.27
6148.22426956917  83086.9
6149.64411282935  82973.05
6151.06395608953  82752.86
6152.4837993497  82854.16
6153.90364260988  82943.05
6155.32348587005  82868.67
6156.74332913023  82870.63
6158.1631723904  82809.65
6159.58301565058  82757.63
6161.00285891076  82791.83
6162.42270217093  82685.8
6163.84254543111  82662.82
6165.26238869128  82635.29
6166.68223195146  82765.85
6168.10207521163  82708.32
6169.52191847181  82684.27
6170.94176173199  82778.87
6172.36160499216  82778.75
6173.78144825234  82837.27
6175.20129151251  82778.16
6176.62113477269  82598.34
6178.04097803286  82730.7
6179.46082129304  82744.13
6180.88066455322  82548.02
6182.30050781339  82514.78
6183.72035107357  82679.95
6185.14019433374  82537.32
6186.56003759392  82612.83
6187.97988085409  82614.75
6189.39972411427  82458.91
6190.81956737445  82503.
6192.23941063462  82606.16
6193.6592538948  82555.16
6195.07909715497  82284.05
6196.49894041515  82447.57
6197.91878367533  82484.01
6199.3386269355  82659.04
6200.75847019568  82556.9
6202.17831345585  82481.18
6203.59815671603  82457.64
6205.0179999762  82548.18
6206.43784323638  82308.12
6207.85768649655  82463.26
6209.27752975673  82497.89
6210.69737301691  82324.8
6212.11721627708  82362.3
6213.53705953726  82387.66
6214.95690279743  82333.05
6216.37674605761  82370.8
6217.79658931778  82284.52
6219.21643257796  82297.84
6220.63627583814  82396.55
6222.05611909831  82350.7
6223.47596235849  82394.55
6224.89580561866  82301.84
6226.31564887884  82361.85
6227.73549213901  82294.92
6229.15533539919  82218.41
6230.57517865936  82336.11
6231.99502191954  82127.16
6233.41486517972  82342.92
6234.83470843989  82441.8
6236.25455170007  82371.68
6237.67439496024  82411.88
6239.09423822042  82380.47
6240.51408148059  82320.03
6241.93392474077  82271.72
6243.35376800095  82378.3
6244.77361126112  82238.23
6246.1934545213  82153.95
6247.61329778147  82176.3
6249.03314104165  82114.15
6250.45298430183  82205.66
6251.872827562  82128.3
6253.29267082218  81999.05
6254.71251408235  81917.86
6256.13235734253  82077.8
6257.5522006027  82333.3
6258.97204386288  82318.59
6260.39188712306  82246.09
6261.81173038323  82161.67
6263.23157364341  82028.02
6264.65141690358  82049.59
6266.07126016376  82153.93
6267.49110342394  82168.18
6268.91094668411  82056.8
6270.33078994429  82166.89
6271.75063320446  82115.02
6273.17047646464  82027.52
6274.59031972481  82166.66
6276.01016298499  82080.72
6277.43000624516  82026.82
6278.84984950534  81849.77
6280.26969276551  81901.81
6281.68953602569  82003.62
6283.10937928587  81906.09
6284.52922254604  81988.36
6285.94906580622  82051.77
6287.36890906639  82073.23
6288.78875232657  82161.31
6290.20859558674  82035.03
6291.62843884692  81767.96
6293.0482821071  81847.5
6294.46812536727  81902.02
6295.88796862745  81779.57
6297.30781188762  81881.38
6298.7276551478  82661.74
6300.14749840797  83306.41
6301.56734166815  83301.99
6302.98718492833  82885.96
6304.4070281885  81980.88
6305.82687144868  82038.23
6307.24671470885  82109.81
6308.66655796903  82212.04
6310.0864012292  82097.47
6311.50624448938  81877.41
6312.92608774956  81986.14
6314.34593100973  82051.66
6315.76577426991  81860.7
6317.18561753008  81841.23
6318.60546079026  81911.27
6320.02530405043  81976.39
6321.44514731061  81989.49
6322.86499057079  82025.27
6324.28483383096  82057.97
6325.70467709114  81956.87
6327.12452035131  81955.87
6328.54436361149  82020.45
6329.96420687166  82143.45
6331.38405013184  82042.93
6332.80389339202  81899.84
6334.22373665219  81828.06
6335.64357991237  81886.61
6337.06342317254  81767.27
6338.48326643272  81880.79
6339.90310969289  81935.98
6341.32295295307  81852.4
6342.74279621325  81807.43
6344.16263947342  81827.11
6345.5824827336  81920.56
6347.00232599377  81782.
6348.42216925395  81924.86
6349.84201251412  81819.41
6351.2618557743  81886.3
6352.68169903448  82001.89
6354.10154229465  81877.77
6355.52138555483  81822.41
6356.941228815  81999.64
6358.36107207518  82018.73
6359.78091533535  81981.42
6361.20075859553  81696.71
6362.6206018557  81989.84
6364.04044511588  82305.88
6365.46028837606  82050.23
6366.88013163623  81772.94
6368.29997489641  81617.08
6369.71981815658  81878.1
6371.13966141676  81929.28
6372.55950467694  81869.55
6373.97934793711  81461.11
6375.39919119729  81631.35
6376.81903445746  81755.7
6378.23887771764  81816.8
6379.65872097781  81679.45
6381.07856423799  81609.86
6382.49840749817  81543.84
6383.91825075834  81513.63
6385.33809401852  81470.37
6386.75793727869  81639.41
6388.17778053887  81359.91
6389.59762379904  81443.02
6391.01746705922  81475.61
6392.43731031939  81493.24
6393.85715357957  81400.42
6395.27699683975  81410.82
6396.69684009992  81473.43
6398.1166833601  81489.64
6399.53652662027  81400.9
6400.95636988045  81304.68
6402.37621314063  81384.62
6403.7960564008  81527.72
6405.21589966098  81619.18
6406.63574292115  81435.16
6408.05558618133  81484.81
6409.4754294415  81416.33
6410.89527270168  81489.57
6412.31511596186  81482.95
6413.73495922203  81524.85
6415.15480248221  81422.47
6416.57464574238  81503.3
6417.99448900256  81435.77
6419.41433226273  81269.55
6420.83417552291  81451.11
6422.25401878309  81452.9
6423.67386204326  81202.84
6425.09370530344  81448.67
6426.51354856361  81320.21
6427.93339182379  81337.73
6429.35323508396  81339.96
6430.77307834414  81254.7
6432.19292160431  81337.91
6433.61276486449  81302.88
6435.03260812467  81378.66
6436.45245138484  81368.24
6437.87229464502  81261.11
6439.29213790519  81288.07
6440.71198116537  81339.48
6442.13182442554  81363.16
6443.55166768572  81341.75
6444.9715109459  81280.2
6446.39135420607  81168.28
6447.81119746625  81205.68
6449.23104072642  81205.66
6450.6508839866  81348.13
6452.07072724678  81392.91
6453.49057050695  81342.26
6454.91041376713  81207.34
6456.3302570273  81118.01
6457.75010028748  81279.58
6459.16994354765  81274.62
6460.58978680783  81289.27
6462.00963006801  81167.22
6463.42947332818  81114.73
6464.84931658836  81238.05
6466.26915984853  81291.59
6467.68900310871  81311.15
6469.10884636888  81280.29
6470.52868962906  81276.02
6471.94853288924  81204.6
6473.36837614941  81353.31
6474.78821940959  81194.43
6476.20806266976  81016.73
6477.62790592994  81164.46
6479.04774919011  81205.7
6480.46759245029  81168.66
6481.88743571047  81061.73
6483.30727897064  81196.69
6484.72712223082  81014.45
6486.14696549099  81126.81
6487.56680875117  80930.27
6488.98665201134  80877.59
6490.40649527152  80953.39
6491.82633853169  80968.42
6493.24618179187  81115.59
6494.66602505205  81003.
6496.08586831222  81082.52
6497.5057115724  81384.23
6498.92555483257  81260.4
6500.34539809275  81424.53
6501.76524135293  81269.62
6503.1850846131  81168.15
6504.60492787328  80974.33
6506.02477113345  80908.84
6507.44461439363  80940.34
6508.8644576538  81089.16
6510.28430091398  81109.53
6511.70414417415  80985.52
6513.12398743433  80923.55
6514.54383069451  80907.28
6515.96367395468  81040.3
6517.38351721486  81154.42
6518.80336047503  81006.82
6520.22320373521  80919.06
6521.64304699539  81106.33
6523.06289025556  80932.54
6524.48273351574  81058.35
6525.90257677591  81130.44
6527.32242003609  81066.7
6528.74226329626  81018.08
6530.16210655644  80922.55
6531.58194981661  81165.81
6533.00179307679  81327.45
6534.42163633697  81213.83
6535.84147959714  81278.11
6537.26132285732  80924.2
6538.68116611749  81049.53
6540.10100937767  81276.72
6541.52085263784  81310.41
6542.94069589802  81123.35
6544.36053915819  81245.78
6545.78038241837  81286.43
6547.20022567855  81183.41
6548.62006893872  81231.68
6550.0399121989  81412.65
6551.45975545907  81499.31
6552.87959871925  81528.05
6554.29944197943  81637.95
6555.7192852396  82003.16
6557.13912849978  82585.37
6558.55897175995  83344.63
6559.97881502013  84240.71
6561.3986582803  85020.55
6562.81850154048  84644.59
6564.23834480066  83389.3
6565.65818806083  83169.36
6567.07803132101  83672.06
6568.49787458118  83477.44
6569.91771784136  82527.23
6571.33756110153  81683.13
6572.75740436171  81123.55
6574.17724762189  80930.83
6575.59709088206  80837.83
6577.01693414224  80862.35
6578.43677740241  80854.94
6579.85662066259  80840.31
6581.27646392276  80508.44
6582.69630718294  80712.62
6584.11615044311  80630.16
6585.53599370329  80523.97
6586.95583696347  80625.88
6588.37568022364  80691.21
6589.79552348382  80436.9
6591.21536674399  80446.01
6592.63521000417  80565.12
6594.05505326434  80582.59
6595.47489652452  80493.78
6596.8947397847  80507.2
6598.31458304487  80566.08
6599.73442630505  80513.63
6601.15426956522  80404.63
6602.5741128254  80514.74
6603.99395608557  80410.95
6605.41379934575  80247.12
6606.83364260593  80439.23
6608.2534858661  80295.98
6609.67332912628  80420.13
6611.09317238645  80411.16
6612.51301564663  80351.28
6613.9328589068  80266.83
6615.35270216698  80262.48
6616.77254542716  80338.78
6618.19238868733  80413.92
6619.61223194751  80291.15
6621.03207520768  80065.59
6622.45191846786  80075.7
6623.87176172804  80288.34
6625.29160498821  80273.05
6626.71144824839  80218.63
6628.13129150856  80159.66
6629.55113476874  80111.93
6630.97097802891  80065.68
6632.39082128909  80076.11
6633.81066454926  80193.92
6635.23050780944  80141.24
6636.65035106962  80115.33
6638.07019432979  80114.69
6639.49003758997  79864.44
6640.90988085014  79927.9
6642.32972411032  79809.8
6643.74956737049  79931.7
6645.16941063067  80003.43
6646.58925389084  80081.56
6648.00909715102  80048.81
6649.4289404112  79938.66
6650.84878367137  79858.95
6652.26862693155  79843.45
6653.68847019172  79896.81
6655.1083134519  79765.48
6656.52815671208  79695.
6657.94799997225  79783.81
6659.36784323243  79649.38
6660.7876864926  79463.37
6662.20752975278  79483.91
6663.62737301295  79682.55
6665.04721627313  79608.72
6666.46705953331  79727.88
6667.88690279348  79697.77
6669.30674605366  79689.23
6670.72658931383  79665.8
6672.14643257401  79692.08
6673.56627583418  79801.83
6674.98611909436  79703.08
6676.40596235454  79579.75
6677.82580561471  79556.66
6679.24564887489  79626.84
6680.66549213506  79661.55
6682.08533539524  79774.5
6683.50517865541  79682.13
6684.92502191559  79647.18
6686.34486517576  79540.24
6687.76470843594  79372.8
6689.18455169612  79402.84
6690.60439495629  79330.27
6692.02423821647  79256.36
6693.44408147664  79271.43
6694.86392473682  79409.25
6696.283767997  79507.6
6697.70361125717  79414.46
6699.12345451735  79324.3
6700.54329777752  79217.78
6701.9631410377  79445.63
6703.38298429787  79430.3
6704.80282755805  79303.85
6706.22267081822  79308.8
6707.6425140784  79556.41
6709.06235733858  79419.74
6710.48220059875  79503.95
6711.90204385893  79524.23
6713.3218871191  79425.08
6714.74173037928  79343.84
6716.16157363945  79298.79
6717.58141689963  79350.79
6719.00126015981  79361.88
6720.42110341998  79246.05
6721.84094668016  79192.01
6723.26078994033  78980.02
6724.68063320051  79028.91
6726.10047646068  79142.55
6727.52031972086  79170.46
6728.94016298104  79052.97
6730.36000624121  79123.13
6731.77984950139  79209.45
6733.19969276156  79042.98
6734.61953602174  79142.91
6736.03937928191  79228.34
6737.45922254209  79148.41
6738.87906580227  79014.22
6740.29890906244  79062.68
6741.71875232262  79050.35
6743.13859558279  78975.74
6744.55843884297  78931.92
6745.97828210314  78963.83
6747.39812536332  79141.14
6748.8179686235  79096.36
6750.23781188367  79149.14
6751.65765514385  79058.02
6753.07749840402  78941.55
6754.4973416642  79028.55
6755.91718492437  78960.6
6757.33702818455  79003.86
6758.75687144473  78942.6
6760.1767147049  78956.59
6761.59655796508  78919.71
6763.01640122525  79000.38
6764.43624448543  78946.88
6765.8560877456  78816.45
6767.27593100578  78862.4
6768.69577426596  78976.77
6770.11561752613  79038.66
6771.53546078631  79116.88
6772.95530404648  78987.19
6774.37514730666  78770.09
6775.79499056684  79005.2
6777.21483382701  78948.36
6778.63467708719  78811.2
6780.05452034736  78960.63
6781.47436360754  79040.96
6782.89420686771  78841.94
6784.31405012789  78740.17
6785.73389338806  78860.95
6787.15373664824  78807.48
6788.57357990842  78477.23
6789.99342316859  78739.77
6791.41326642877  78734.48
6792.83310968894  78636.07
6794.25295294912  78634.57
6795.67279620929  78844.66
6797.09263946947  78719.84
6798.51248272965  78595.41
6799.93232598982  78625.45
6801.35216925  78613.8
6802.77201251017  78598.48
6804.19185577035  78570.3
6805.61169903052  78560.27
6807.0315422907  78624.27
6808.45138555087  78670.38
6809.87122881105  78617.5
6811.29107207123  78544.46
6812.7109153314  78646.2
6814.13075859158  78628.48
6815.55060185175  78574.66
6816.97044511193  78602.12
6818.39028837211  78648.85
6819.81013163228  78697.16
6821.22997489246  78584.89
6822.64981815263  78410.34
6824.06966141281  78583.07
6825.48950467299  78651.74
6826.90934793316  78577.55
6828.32919119334  78953.27
6829.74903445351  79204.38
6831.16887771369  78946.35
6832.58872097386  78874.8
6834.00856423404  79057.84
6835.42840749421  78881.73
6836.84825075439  78537.68
6838.26809401457  78566.19
6839.68793727474  78491.11
6841.10778053492  78681.41
6842.52762379509  78608.21
6843.94746705527  78616.93
6845.36731031544  78477.91
6846.78715357562  78503.9
6848.2069968358  78635.2
6849.62684009597  78455.59
6851.04668335615  78325.96
6852.46652661632  78471.57
6853.8863698765  78357.73
6855.30621313667  78290.61
6856.72605639685  78287.23
6858.14589965702  78307.91
6859.5657429172  78233.
6860.98558617738  78521.79
6862.40542943755  79130.91
6863.82527269773  79189.6
6865.2451159579  78935.84
6866.66495921808  78289.59
6868.08480247825  77968.92
6869.50464573843  78025.66
6870.92448899861  78068.92
6872.34433225878  78098.9
6873.76417551896  78073.7
6875.18401877913  78203.65
6876.60386203931  78182.68
6878.02370529949  78053.3
6879.44354855966  78168.3
6880.86339181984  78335.73
6882.28323508001  78338.54
6883.70307834019  78306.88
6885.12292160036  78212.81
6886.54276486054  78188.17
6887.96260812071  78110.48
6889.38245138089  78178.11
6890.80229464107  78085.38
6892.22213790124  78029.96
6893.64198116142  77980.82
6895.06182442159  78225.27
6896.48166768177  78052.37
6897.90151094195  77860.82
6899.32135420212  78148.36
6900.7411974623  78366.1
6902.16104072247  78181.12
6903.58088398265  78058.17
6905.00072724282  77951.16
6906.420570503  77947.4
6907.84041376317  77924.7
6909.26025702335  78006.07
6910.68010028353  78075.91
6912.0999435437  78295.74
6913.51978680388  78257.88
6914.93963006405  78289.98
6916.35947332423  78299.37
6917.7793165844  78012.3
6919.19915984458  77927.21
6920.61900310476  78221.51
6922.03884636493  78501.58
6923.45868962511  78498.91
6924.87853288528  78287.07
6926.29837614546  77900.77
6927.71821940563  77955.03
6929.13806266581  78123.83
6930.55790592599  78091.2
6931.97774918616  78004.93
6933.39759244634  77983.56
6934.81743570651  78005.2
6936.23727896669  78182.51
6937.65712222686  78380.78
6939.07696548704  78275.01
6940.49680874722  78313.44
6941.91665200739  78157.13
6943.33649526757  78103.86
6944.75633852774  78105.99
6946.17618178792  78162.48
6947.59602504809  78558.46
6949.01586830827  78691.78
6950.43571156845  78596.27
6951.85555482862  78427.6
6953.2753980888  78142.91
6954.69524134897  78118.04
6956.11508460915  78100.8
6957.53492786932  78151.7
6958.9547711295  78321.8
6960.37461438968  78118.9
6961.79445764985  77884.41
6963.21430091003  77965.46
6964.6341441702  78117.88
6966.05398743038  78077.18
6967.47383069055  78019.63
6968.89367395073  78160.08
6970.3135172109  78224.55
6971.73336047108  78055.49
6973.15320373126  78096.63
6974.57304699143  78111.46
6975.99289025161  78251.08
6977.41273351178  78371.09
6978.83257677196  78535.45
6980.25242003214  78482.08
6981.67226329231  78137.7
6983.09210655249  78126.9
6984.51194981266  78167.75
6985.93179307284  78134.71
6987.35163633302  78020.95
6988.77147959319  78071.91
6990.19132285337  78344.23
6991.61116611354  78213.53
6993.03100937372  78187.99
6994.45085263389  78076.41
6995.87069589407  77830.86
6997.29053915424  78026.98
6998.71038241442  78120.02
7000.1302256746  78008.79
7001.55006893477  77971.3
7002.96991219495  78121.75
7004.38975545512  78171.24
7005.8095987153  78096.58
7007.22944197547  78024.35
7008.64928523565  78033.27
7010.06912849582  78048.38
7011.488971756  78300.66
7012.90881501618  78090.23
7014.32865827635  78011.7
7015.74850153653  77974.7
7017.1683447967  78135.95
7018.58818805688  78071.2
7020.00803131705  78057.65
7021.42787457723  78070.92
7022.84771783741  78155.03
7024.26756109758  78310.83
7025.68740435776  78180.13
7027.10724761793  78125.09
7028.52709087811  78088.45
7029.94693413829  78154.31
7031.36677739846  77916.52
7032.78662065864  77866.63
7034.20646391881  78071.77
7035.62630717899  78099.88
7037.04615043916  78168.45
7038.46599369934  78150.92
7039.88583695952  78369.34
7041.30568021969  78423.73
7042.72552347987  78175.41
7044.14536674004  78357.3
7045.56521000022  78263.15
7046.9850532604  78313.33
7048.40489652057  78498.3
7049.82473978075  78571.02
7051.24458304092  78631.49
7052.6644263011  78549.78
7054.08426956127  78525.62
7055.50411282145  78234.48
7056.92395608162  78071.64
7058.3437993418  78066.55
7059.76364260198  77675.86
7061.18348586215  77218.08
7062.60332912233  77121.33
7064.0231723825  77154.64
7065.44301564268  77192.35
7066.86285890285  77085.13
7068.28270216303  77164.51
7069.7025454232  77150.72
7071.12238868338  77223.95
7072.54223194356  77198.8
7073.96207520373  77119.43
7075.38191846391  77151.43
7076.80176172408  77240.65
7078.22160498426  77235.8
7079.64144824444  77176.16
7081.06129150461  77123.13
7082.48113476479  77140.92
7083.90097802496  77216.64
7085.32082128514  77265.7
7086.74066454531  77326.63
7088.16050780549  77262.8
7089.58035106566  77233.54
7091.00019432584  77198.09
7092.42003758602  76937.67
7093.83988084619  76740.58
7095.25972410637  76626.1
7096.67956736654  76727.05
7098.09941062672  76759.44
7099.5192538869  76623.61
7100.93909714707  76571.51
7102.35894040725  76535.54
7103.77878366742  76574.21
7105.1986269276  76595.59
7106.61847018777  76731.88
7108.03831344795  76717.98
7109.45815670812  76704.22
7110.8779999683  76662.34
7112.29784322848  76605.3
7113.71768648865  76710.23
7115.13752974883  76933.56
7116.557373009  76812.06
7117.97721626918  76860.91
7119.39705952935  76897.47
7120.81690278953  76671.12
7122.23674604971  76735.28
7123.65658930988  76951.51
7125.07643257006  76796.28
7126.49627583023  76766.33
7127.91611909041  76815.07
7129.33596235058  76693.85
7130.75580561076  76589.38
7132.17564887094  76364.82
7133.59549213111  76244.7
7135.01533539129  76396.12
7136.43517865146  76321.56
7137.85502191164  76207.66
7139.27486517181  76226.73
7140.69470843199  76275.83
7142.11455169217  76306.13
7143.53439495234  76425.38
7144.95423821252  76365.77
7146.37408147269  76254.55
7147.79392473287  76507.87
7149.21376799304  76452.91
7150.63361125322  76413.
7152.0534545134  76382.54
7153.47329777357  76379.29
7154.89314103375  76264.74
7156.31298429392  76296.2
7157.7328275541  76421.16
7159.15267081427  76280.06
7160.57251407445  76315.66
7161.99235733463  76450.65
7163.4122005948  76263.88
7164.83204385498  76257.89
7166.25188711515  76099.48
7167.67173037533  76150.26
7169.0915736355  76279.19
7170.51141689568  76148.38
7171.93126015585  76239.98
7173.35110341603  76271.32
7174.77094667621  76075.27
7176.19078993638  76165.49
7177.61063319656  76288.02
7179.03047645673  76139.19
7180.45031971691  76091.13
7181.87016297709  76191.69
7183.29000623726  76055.13
7184.70984949744  76272.13
7186.12969275761  76204.96
7187.54953601779  76258.12
7188.96937927796  76191.26
7190.38922253814  76426.84
7191.80906579832  76246.99
7193.22890905849  76101.9
7194.64875231867  76165.06
7196.06859557884  76286.78
7197.48843883902  76153.35
7198.9082820992  76338.43
7200.32812535937  76306.54
7201.74796861955  76205.35
7203.16781187972  76076.13
7204.5876551399  75964.9
7206.00749840007  76060.71
7207.42734166025  76120.5
7208.84718492042  76130.63
7210.2670281806  76139.
7211.68687144078  76105.6
7213.10671470095  76018.75
7214.52655796113  76082.68
7215.9464012213  76120.95
7217.36624448148  76204.33
7218.78608774165  76198.55
7220.20593100183  76143.33
7221.625774262  76223.24
7223.04561752218  76036.67
7224.46546078235  76103.57
7225.88530404253  76158.2
7227.30514730271  76264.84
7228.72499056288  76192.12
7230.14483382306  76196.86
7231.56467708323  76178.1
7232.98452034341  76141.3
7234.40436360359  76073.76
7235.82420686376  76243.7
7237.24405012394  76638.67
7238.66389338411  77146.25
7240.08373664429  77352.7
7241.50357990447  77099.16
7242.92342316464  76979.05
7244.34326642482  77023.45
7245.76310968499  77239.19
7247.18295294517  76826.13
7248.60279620535  76398.19
7250.02263946552  76229.68
7251.4424827257  76286.05
7252.86232598587  76390.94
7254.28216924605  76494.38
7255.70201250622  76492.8
7257.1218557664  76439.58
7258.54169902657  76497.88
7259.96154228675  76302.6
7261.38138554693  76249.54
7262.8012288071  76387.12
7264.22107206728  76334.73
7265.64091532745  76316.8
7267.06075858763  76408.15
7268.4806018478  76405.79
7269.90044510798  76294.91
7271.32028836815  76413.04
7272.74013162833  76586.05
7274.15997488851  77192.04
7275.57981814868  77895.95
7276.99966140886  77702.88
7278.41950466903  77315.93
7279.83934792921  76664.36
7281.25919118938  76514.74
7282.67903444956  76641.28
7284.09887770974  77021.3
7285.51872096991  77107.24
7286.93856423009  76635.74
7288.35840749026  76511.19
7289.77825075044  76374.62
7291.19809401061  76175.55
7292.61793727079  76299.21
7294.03778053097  76514.02
7295.45762379114  76596.84
7296.87746705132  76696.13
7298.29731031149  76484.82
7299.71715357167  76441.36
7301.13699683185  76503.57
7302.55684009202  76841.55
7303.9766833522  76745.85
7305.39652661237  76610.04
7306.81636987255  76572.64
7308.23621313272  76376.62
7309.6560563929  76273.59
7311.07589965307  76495.54
7312.49574291325  76774.94
7313.91558617343  77200.24
7315.3354294336  77762.52
7316.75527269378  77797.71
7318.17511595395  77637.26
7319.59495921413  76799.27
7321.0148024743  76477.28
7322.43464573448  76506.76
7323.85448899466  76541.29
7325.27433225483  76556.16
7326.69417551501  76718.92
7328.11401877518  77088.88
7329.53386203536  77013.08
7330.95370529553  76962.73
7332.37354855571  76803.91
7333.79339181589  76569.1
7335.21323507606  76475.6
7336.63307833624  76277.65
7338.05292159641  76780.09
7339.47276485659  77717.57
7340.89260811676  78094.01
7342.31245137694  77904.43
7343.73229463712  77346.41
7345.15213789729  76939.35
7346.57198115747  76809.01
7347.99182441764  76573.61
7349.41166767782  76704.85
7350.83151093799  76934.34
7352.25135419817  76779.34
7353.67119745835  76862.95
7355.09104071852  76825.05
7356.5108839787  76636.
7357.93072723887  77009.77
7359.35057049905  77136.41
7360.77041375922  76820.34
7362.1902570194  76738.07
7363.61010027958  76693.99
7365.02994353975  76892.28
7366.44978679993  76929.85
7367.8696300601  77382.36
7369.28947332028  77575.54
7370.70931658045  77819.16
7372.12915984063  77382.35
7373.5490031008  76750.14
7374.96884636098  76648.44
7376.38868962116  76546.45
7377.80853288133  76926.88
7379.22837614151  76684.92
7380.64821940168  76595.42
7382.06806266186  76631.6
7383.48790592204  76563.04
7384.90774918221  76530.65
7386.32759244239  76522.7
7387.74743570256  76793.79
7389.16727896274  76758.16
7390.58712222291  76805.23
7392.00696548309  76937.47
7393.42680874326  76898.41
7394.84665200344  76878.39
7396.26649526362  76915.95
7397.68633852379  76830.84
7399.10618178397  76674.8
7400.52602504414  77093.9
7401.94586830432  77457.91
7403.3657115645  77189.02
7404.78555482467  76885.39
7406.20539808485  76690.3
7407.62524134502  76646.23
7409.0450846052  76736.3
7410.46492786538  76727.45
7411.88477112555  76590.81
7413.30461438573  76565.6
7414.7244576459  76626.01
7416.14430090608  76554.58
7417.56414416625  76599.32
7418.98398742643  76575.08
7420.4038306866  76511.78
7421.82367394678  76391.09
7423.24351720695  76667.32
7424.66336046713  76509.96
7426.08320372731  76355.78
7427.50304698748  76424.48
7428.92289024766  76629.68
7430.34273350783  76614.48
7431.76257676801  76571.06
7433.18242002818  76682.92
7434.60226328836  76691.3
7436.02210654854  76699.82
7437.44194980871  76863.31
7438.86179306889  77009.86
7440.28163632906  76694.77
7441.70147958924  76360.93
7443.12132284941  76190.8
7444.54116610959  76317.52
7445.96100936977  76454.59
7447.38085262994  76415.34
7448.80069589012  76516.77
7450.22053915029  76488.02
7451.64038241047  76287.08
7453.06022567065  76298.79
7454.48006893082  76218.7
7455.899912191  76196.7
7457.31975545117  76315.6
7458.73959871135  76272.64
7460.15944197152  76369.09
7461.5792852317  76338.73
7462.99912849188  76422.85
7464.41897175205  76341.68
7465.83881501223  76451.58
7467.2586582724  76401.3
7468.67850153258  76369.17
7470.09834479275  76302.58
7471.51818805293  76614.39
7472.9380313131  76587.95
7474.35787457328  76359.54
7475.77771783346  76488.92
7477.19756109363  76544.14
7478.61740435381  76361.62
7480.03724761398  76495.92
7481.45709087416  76468.42
7482.87693413434  76460.73
7484.29677739451  76714.82
7485.71662065469  76719.53
7487.13646391486  76279.07
7488.55630717504  76285.26
7489.97615043521  76306.73
7491.39599369539  76113.75
7492.81583695556  76225.03
7494.23568021574  76118.48
7495.65552347592  76145.98
7497.07536673609  76310.61
7498.49520999627  76117.87
7499.91505325644  76211.05
7501.33489651662  76106.85
7502.7547397768  76237.71
7504.17458303697  76274.55
7505.59442629715  76084.05
7507.01426955732  76075.56
7508.4341128175  75897.49
7509.85395607767  75956.55
7511.27379933785  76256.77
7512.69364259802  76258.86
7514.1134858582  76170.66
7515.53332911838  76106.66
7516.95317237855  76044.75
7518.37301563873  76311.75
7519.7928588989  76299.7
7521.21270215908  76308.52
7522.63254541925  76651.59
7524.05238867943  76974.35
7525.47223193961  77055.8
7526.89207519978  76782.7
7528.31191845996  76274.38
7529.73176172013  76135.3
7531.15160498031  76350.46
7532.57144824048  76345.69
7533.99129150066  76030.87
7535.41113476084  75941.37
7536.83097802101  76120.75
7538.25082128119  76135.69
7539.67066454136  76299.92
7541.09050780154  76346.67
7542.51035106171  76091.57
7543.93019432189  76070.24
7545.35003758207  76310.4
7546.76988084224  76307.85
7548.18972410242  75842.02
7549.60956736259  76167.68
7551.02941062277  75993.68
7552.44925388294  75896.98
7553.86909714312  76050.55
7555.2889404033  76087.98
7556.70878366347  76304.63
7558.12862692365  76392.36
7559.54847018382  76209.41
7560.968313444  76105.
7562.38815670417  76087.2
7563.80799996435  76139.55
7565.22784322453  75979.99
7566.6476864847  75847.19
7568.06752974488  76037.12
7569.48737300505  76104.55
7570.90721626523  76317.95
7572.3270595254  76530.36
7573.74690278558  76441.66
7575.16674604575  76482.36
7576.58658930593  76263.26
7578.00643256611  76080.48
7579.42627582628  76029.09
7580.84611908646  76243.28
7582.26596234663  75899.59
7583.68580560681  75720.28
7585.10564886699  75760.84
7586.52549212716  75868.05
7587.94533538734  75949.52
7589.36517864751  76164.94
7590.78502190769  75848.87
7592.20486516786  75714.5
7593.62470842804  75497.73
7595.04455168821  74645.36
7596.46439494839  73832.7
7597.88423820857  73678.76
7599.30408146874  73612.28
7600.72392472892  73545.5
7602.14376798909  73421.77
7603.56361124927  73099.77
7604.98345450945  72982.84
7606.40329776962  72900.95
7607.8231410298  72878.32
7609.24298428997  73075.22
7610.66282755015  73119.74
7612.08267081032  73191.08
7613.5025140705  73381.59
7614.92235733068  73463.66
7616.34220059085  73695.7
7617.76204385103  74184.01
7619.1818871112  74574.47
7620.60173037138  74589.55
7622.02157363155  74279.7
7623.44141689173  73799.59
7624.86126015191  73486.48
7626.28110341208  73648.34
7627.70094667226  73793.23
7629.12078993243  73904.19
7630.54063319261  73923.4
7631.96047645278  73432.8
7633.38031971296  73284.93
7634.80016297313  73625.91
7636.22000623331  73342.56
7637.63984949349  73164.66
7639.05969275366  73277.81
7640.47953601384  73218.05
7641.89937927401  73145.13
7643.31922253419  73492.61
7644.73906579436  73623.78
7646.15890905454  73373.71
7647.57875231471  73739.34
7648.99859557489  73746.09
7650.41843883507  73343.66
7651.83828209524  73751.81
7653.25812535542  74004.18
7654.67796861559  73969.21
7656.09781187577  73900.87
7657.51765513595  73751.42
7658.93749839612  73855.62
7660.3573416563  73769.07
7661.77718491647  73727.98
7663.19702817665  74071.18
7664.61687143682  74065.06
7666.036714697  73798.37
7667.45655795718  73611.73
7668.87640121735  73438.63
7670.29624447753  73313.06
7671.7160877377  72989.41
7673.13593099788  72541.16
7674.55577425805  72584.45
7675.97561751823  72923.22
7677.39546077841  73116.55
7678.81530403858  73202.67
7680.23514729876  73252.27
7681.65499055893  73348.06
7683.07483381911  73514.62
7684.49467707928  73518.36
7685.91452033946  73423.34
7687.33436359964  73426.83
7688.75420685981  73455.87
7690.17405011999  73586.87
7691.59389338016  73661.73
7693.01373664034  73530.54
7694.43357990051  73513.42
7695.85342316069  73506.79
7697.27326642087  73572.71
7698.69310968104  73632.16
7700.11295294122  73591.5
7701.53279620139  73477.05
7702.95263946157  73443.84
7704.37248272174  73368.94
7705.79232598192  72950.27
7707.2121692421  72714.28
7708.63201250227  72809.98
7710.05185576245  72918.4
7711.47169902262  73301.84
7712.8915422828  73925.21
7714.31138554297  74402.82
7715.73122880315  74679.88
7717.15107206332  74999.85
7718.5709153235  75022.6
7719.99075858368  74611.73
7721.41060184385  74343.34
7722.83044510403  73630.2
7724.2502883642  73488.85
7725.67013162438  73782.02
7727.08997488456  73791.43
7728.50981814473  73772.09
7729.92966140491  73691.44
7731.34950466508  73666.17
7732.76934792526  73574.55
7734.18919118543  73619.12
7735.60903444561  73719.59
7737.02887770578  73543.09
7738.44872096596  73574.3
7739.86856422614  73684.29
7741.28840748631  73663.32
7742.70825074649  73750.41
7744.12809400666  73651.05
7745.54793726684  73614.31
7746.96778052701  73528.48
7748.38762378719  73755.76
7749.80746704737  73861.37
7751.22731030754  74662.82
7752.64715356772  75497.87
7754.06699682789  75398.58
7755.48684008807  74464.3
7756.90668334824  73658.48
7758.32652660842  73300.42
7759.7463698686  73307.55
7761.16621312877  73697.09
7762.58605638895  73920.53
7764.00589964912  73648.29
7765.4257429093  73298.2
7766.84558616947  73219.8
7768.26542942965  73177.4
7769.68527268983  73132.52
7771.10511595  73127.94
7772.52495921018  73084.61
7773.94480247035  73365.32
7775.36464573053  73453.02
7776.78448899071  73366.74
7778.20433225088  73470.48
7779.62417551106  73321.24
7781.04401877123  73422.32
7782.46386203141  73733.61
7783.88370529158  73673.43
7785.30354855176  73499.14
7786.72339181193  73386.05
7788.14323507211  73236.5
7789.56307833229  73200.31
7790.98292159246  73140.52
7792.40276485264  73087.97
7793.82260811281  73346.35
7795.24245137299  73999.62
7796.66229463316  74541.1
7798.08213789334  74354.35
7799.50198115351  73804.81
7800.92182441369  73238.46
7802.34166767387  73151.52
7803.76151093404  73228.33
7805.18135419422  73034.34
7806.60119745439  72941.23
7808.02104071457  73065.3
7809.44088397474  73312.53
7810.86072723492  73550.57
7812.2805704951  73537.46
7813.70041375527  73481.77
7815.12025701545  73408.85
7816.54010027562  73354.41
7817.9599435358  73321.39
7819.37978679598  73323.27
7820.79963005615  73404.51
7822.21947331633  73994.02
7823.6393165765  74946.55
7825.05915983668  74894.48
7826.47900309686  74466.49
7827.89884635703  73654.05
7829.31868961721  73219.67
7830.73853287738  73187.29
7832.15837613756  73027.02
7833.57821939773  73125.77
7834.99806265791  73112.57
7836.41790591808  72863.45
7837.83774917826  72958.79
7839.25759243844  72863.87
7840.67743569861  72891.28
7842.09727895879  73096.33
7843.51712221896  73561.34
7844.93696547914  73564.2
7846.35680873931  73230.64
7847.77665199949  73068.6
7849.19649525967  72988.1
7850.61633851984  73001.41
7852.03618178002  73145.77
7853.45602504019  73524.62
7854.87586830037  74275.88
7856.29571156054  74761.56
7857.71555482072  74540.3
7859.13539808089  74011.75
7860.55524134107  73189.43
7861.97508460125  73465.45
7863.39492786142  73627.06
7864.8147711216  73523.8
7866.23461438177  73333.32
7867.65445764195  73074.27
7869.07430090213  73143.18
7870.4941441623  73250.38
7871.91398742248  73359.7
7873.33383068265  73524.22
7874.75367394283  73484.42
7876.173517203  73456.87
7877.59336046318  73160.55
7879.01320372336  72576.09
7880.43304698353  72886.45
7881.85289024371  73162.27
7883.27273350388  73197.27
7884.69257676406  73421.8
7886.11242002423  73117.5
7887.53226328441  72815.3
7888.95210654459  72896.52
7890.37194980476  73109.37
7891.79179306494  73477.11
7893.21163632511  73668.44
7894.63147958529  73467.88
7896.05132284546  73386.27
7897.47116610564  73304.95
7898.89100936581  72935.84
7900.31085262599  72995.76
7901.73069588617  73017.82
7903.15053914634  73184.34
7904.57038240652  72915.03
7905.99022566669  72731.6
7907.41006892687  72678.42
7908.82991218705  72606.06
7910.24975544722  72653.14
7911.6695987074  72791.05
7913.08944196757  72855.82
7914.50928522775  73186.55
7915.92912848792  74066.87
7917.3489717481  74769.37
7918.76881500827  74524.2
7920.18865826845  73700.34
7921.60850152863  72967.73
7923.0283447888  72928.05
7924.44818804898  73398.17
7925.86803130915  73363.31
7927.28787456933  73137.6
7928.70771782951  72760.09
7930.12756108968  72753.89
7931.54740434986  72892.29
7932.96724761003  72779.35
7934.38709087021  72928.01
7935.80693413038  73214.01
7937.22677739056  72849.29
7938.64662065073  72514.82
7940.06646391091  72619.28
7941.48630717109  72480.67
7942.90615043126  72557.78
7944.32599369144  72731.09
7945.74583695161  72513.32
7947.16568021179  72540.48
7948.58552347196  72698.06
7950.00536673214  72603.46
7951.42520999231  72652.88
7952.84505325249  72857.76
7954.26489651267  72883.02
7955.68473977284  72710.83
7957.10458303302  72380.95
7958.52442629319  72106.26
7959.94426955337  72295.22
7961.36411281355  72388.75
7962.78395607372  72357.37
7964.2037993339  72441.9
7965.62364259407  72719.21
7967.04348585425  73430.82
7968.46332911442  73849.11
7969.8831723746  73896.01
7971.30301563477  73697.96
7972.72285889495  73054.59
7974.14270215513  72643.55
7975.5625454153  72568.05
7976.98238867548  72374.92
7978.40223193565  72436.84
7979.82207519583  72549.84
7981.24191845601  72672.91
7982.66176171618  73088.45
7984.08160497636  73295.8
7985.50144823653  73224.05
7986.92129149671  73055.34
7988.34113475689  72550.77
7989.76097801706  72327.05
7991.18082127724  72464.48
7992.60066453741  72267.41
7994.02050779759  72642.96
7995.44035105776  73051.82
7996.86019431794  73551.31
7998.28003757811  73888.44
7999.69988083829  73687.27
8001.11972409846  73003.63
8002.53956735864  72516.67
8003.95941061882  72279.85
8005.37925387899  72144.48
8006.79909713917  72310.03
8008.21894039934  72484.23
8009.63878365952  72288.59
8011.0586269197  72318.32
8012.47847017987  72530.19
8013.89831344005  72321.55
8015.31815670022  72277.5
8016.7379999604  72424.73
8018.15784322057  72666.78
8019.57768648075  72623.04
8020.99752974092  72719.44
8022.4173730011  72589.35
8023.83721626128  72377.3
8025.25705952145  72603.75
8026.67690278163  72578.12
8028.0967460418  72519.01
8029.51658930198  72961.13
8030.93643256215  73371.06
8032.35627582233  73470.35
8033.77611908251  73078.43
8035.19596234268  72584.04
8036.61580560286  72462.04
8038.03564886303  72359.36
8039.45549212321  72189.27
8040.87533538339  72306.71
8042.29517864356  72477.32
8043.71502190374  72362.34
8045.13486516391  72326.98
8046.55470842409  72476.37
8047.97455168426  72570.8
8049.39439494444  72335.84
8050.81423820461  72371.59
8052.23408146479  72672.64
8053.65392472497  72652.88
8055.07376798514  72631.71
8056.49361124532  72683.47
8057.91345450549  72537.41
8059.33329776567  72455.8
8060.75314102585  72415.92
8062.17298428602  72246.41
8063.5928275462  72434.33
8065.01267080637  72564.27
8066.43251406655  72731.03
8067.85235732672  72982.3
8069.2722005869  73013.22
8070.69204384707  73025.87
8072.11188710725  72859.47
8073.53173036743  72556.02
8074.9515736276  72507.73
8076.37141688778  72339.55
8077.79126014795  72026.67
8079.21110340813  72454.83
8080.6309466683  72304.7
8082.05078992848  72407.23
8083.47063318866  72256.08
8084.89047644883  72143.86
8086.31031970901  72088.13
8087.73016296918  72254.13
8089.15000622936  72496.08
8090.56984948954  72485.86
8091.98969274971  72499.7
8093.40953600989  72498.32
8094.82937927006  72314.38
8096.24922253024  72482.27
8097.66906579041  72420.41
8099.08890905059  72652.15
8100.50875231076  72359.27
8101.92859557094  72409.8
8103.34843883112  72387.98
8104.76828209129  72283.8
8106.18812535147  72372.67
8107.60796861164  72571.38
8109.02781187182  72848.51
8110.447655132  72745.
8111.86749839217  72619.2
8113.28734165235  72492.7
8114.70718491252  72304.77
8116.1270281727  72430.21
8117.54687143287  72455.38
8118.96671469305  72474.08
8120.38655795322  72358.64
8121.8064012134  72342.06
8123.22624447358  72489.8
8124.64608773375  72446.94
8126.06593099393  72421.41
8127.4857742541  72237.52
8128.90561751428  72237.8
8130.32546077446  72296.4
8131.74530403463  72213.13
8133.16514729481  72230.68
8134.58499055498  72305.26
8136.00483381516  72316.37
8137.42467707533  72355.43
8138.84452033551  72457.22
8140.26436359568  72430.
8141.68420685586  72248.6
8143.10405011604  72303.73
8144.52389337621  72277.44
8145.94373663639  72460.41
8147.36357989656  72235.26
8148.78342315674  72455.23
8150.20326641691  72496.83
8151.62310967709  72264.02
8153.04295293726  72369.37
8154.46279619744  72426.62
8155.88263945762  72234.99
8157.30248271779  72175.24
8158.72232597797  72123.9
8160.14216923814  72064.55
8161.56201249832  71990.84
8162.9818557585  72024.83
8164.40169901867  72235.07
8165.82154227885  72184.52
8167.24138553902  71938.96
8168.6612287992  71849.93
8170.08107205937  71891.82
8171.50091531955  71919.23
8172.92075857973  71877.57
8174.3406018399  71925.49
8175.76044510008  71751.83
8177.18028836025  71623.42
8178.60013162043  71773.98
8180.01997488061  71951.2
8181.43981814078  72006.66
8182.85966140096  71910.55
8184.27950466113  71677.07
8185.69934792131  71593.73
8187.11919118148  71605.29
8188.53903444166  71597.21
8189.95887770183  71480.03
8191.37872096201  71639.83
8192.79856422218  71404.73
8194.21840748236  71049.71
8195.63825074254  70724.34
8197.05809400271  70166.91
8198.47793726289  70084.01
8199.89778052306  70552.14
8201.31762378324  70657.18
8202.73746704342  71102.98
8204.15731030359  71028.05
8205.57715356377  70720.91
8206.99699682394  70393.02
8208.41684008412  70048.74
8209.83668334429  70067.64
8211.25652660447  70311.51
8212.67636986464  70346.37
8214.09621312482  70562.42
8215.516056385  71129.95
8216.93589964517  71079.63
8218.35574290535  71133.32
8219.77558616552  71199.85
8221.1954294257  71336.68
8222.61527268588  71462.12
8224.03511594605  71553.32
8225.45495920623  71523.23
8226.8748024664  71429.05
8228.29464572658  71380.43
8229.71448898675  71332.98
8231.13433224693  71396.72
8232.5541755071  71213.46
8233.97401876728  71003.1
8235.39386202746  70935.85
8236.81370528763  70823.87
8238.23354854781  70903.65
8239.65339180798  71225.89
8241.07323506816  71355.52
8242.49307832833  71308.62
8243.91292158851  71500.73
8245.33276484869  71532.96
8246.75260810886  71533.98
8248.17245136904  71671.94
8249.59229462921  71652.21
8251.01213788939  71637.88
8252.43198114957  71542.41
8253.85182440974  71573.08
8255.27166766992  71607.81
8256.69151093009  71399.78
8258.11135419027  71513.77
8259.53119745044  71546.05
8260.95104071062  71369.55
8262.37088397079  71125.23
8263.79072723097  71453.65
8265.21057049115  71399.71
8266.63041375132  71238.6
8268.0502570115  71266.
8269.47010027167  71188.33
8270.88994353185  71376.91
8272.30978679203  71393.49
8273.7296300522  71405.78
8275.14947331238  71327.24
8276.56931657255  71388.2
8277.98915983273  71507.07
8279.4090030929  71378.92
8280.82884635308  71213.75
8282.24868961325  71133.02
8283.66853287343  71214.69
8285.08837613361  71465.63
8286.50821939378  71378.98
8287.92806265396  71654.97
8289.34790591413  71888.95
8290.76774917431  71796.68
8292.18759243448  71812.73
8293.60743569466  71909.02
8295.02727895484  71805.75
8296.44712221501  71867.69
8297.86696547519  72174.98
8299.28680873536  71984.34
8300.70665199554  71501.26
8302.12649525571  71116.86
8303.54633851589  71337.37
8304.96618177607  71503.58
8306.38602503624  71731.39
8307.80586829642  72192.88
8309.22571155659  72243.45
8310.64555481677  71744.61
8312.06539807694  71346.3
8313.48524133712  70958.31
8314.90508459729  70755.98
8316.32492785747  70758.72
8317.74477111765  71012.44
8319.16461437782  71082.02
8320.584457638  71042.49
8322.00430089817  71050.22
8323.42414415835  70986.52
8324.84398741852  70956.52
8326.2638306787  70894.45
8327.68367393888  70648.2
8329.10351719905  70797.58
8330.52336045923  70479.78
8331.94320371941  70620.55
8333.36304697958  71025.45
8334.78289023976  70865.45
8336.20273349993  70666.9
8337.62257676011  70741.65
8339.04242002028  70663.99
8340.46226328046  70692.66
8341.88210654064  70642.02
8343.30194980081  70769.17
8344.72179306098  70633.42
8346.14163632116  70562.48
8347.56147958134  70577.82
8348.98132284151  70455.79
8350.40116610169  70987.91
8351.82100936186  72002.46
8353.24085262204  72939.7
8354.66069588221  73352.09
8356.08053914239  73073.01
8357.50038240257  72608.78
8358.92022566274  71632.06
8360.34006892292  70866.35
8361.75991218309  71211.52
8363.17975544327  71508.52
8364.59959870344  71131.2
8366.01944196362  71091.14
8367.4392852238  70678.16
8368.85912848397  70593.78
8370.27897174415  70604.03
8371.69881500432  70642.66
8373.1186582645  70838.37
8374.53850152467  70948.26
8375.95834478485  70938.71
8377.37818804503  70743.84
8378.7980313052  70652.52
8380.21787456538  70483.87
8381.63771782555  70272.55
8383.05756108573  70410.08
8384.47740434591  70510.25
8385.89724760608  70363.95
8387.31709086626  70433.05
8388.73693412643  70609.38
8390.15677738661  70549.55
8391.57662064679  70816.79
8392.99646390696  70803.69
8394.41630716713  70666.6
8395.83615042731  70482.64
8397.25599368749  70384.91
8398.67583694766  70248.11
8400.09568020784  70010.71
8401.51552346801  70073.06
8402.93536672819  70225.94
8404.35520998836  70250.
8405.77505324854  70158.36
8407.19489650872  70618.23
8408.61473976889  71552.68
8410.03458302907  72200.08
8411.45442628924  72211.66
8412.87426954942  71779.86
8414.2941128096  70888.3
8415.71395606977  70137.95
8417.13379932995  69931.8
8418.55364259012  69949.84
8419.9734858503  70039.8
8421.39332911047  70296.75
8422.81317237065  70315.7
8424.23301563082  70196.51
8425.652858891  70672.8
8427.07270215118  70996.21
8428.49254541135  70661.72
8429.91238867153  70257.25
8431.3322319317  70031.16
8432.75207519188  69981.17
8434.17191845206  70026.81
8435.59176171223  70104.82
8437.01160497241  70220.88
8438.43144823258  70539.02
8439.85129149276  71378.47
8441.27113475293  71951.43
8442.69097801311  72171.14
8444.11082127328  71630.
8445.53066453346  70750.17
8446.95050779364  70123.05
8448.37035105381  69760.99
8449.79019431399  69722.03
8451.21003757416  69759.25
8452.62988083434  69308.61
8454.04972409451  69151.84
8455.46956735469  69331.84
8456.88941061487  69283.89
8458.30925387504  69328.46
8459.72909713522  69515.95
8461.14894039539  69443.3
8462.56878365557  69758.83
8463.98862691574  69854.67
8465.40847017592  69842.9
8466.8283134361  69702.88
8468.24815669627  69378.91
8469.66799995645  69098.5
8471.08784321662  69116.45
8472.5076864768  69234.89
8473.92752973697  69289.02
8475.34737299715  69875.2
8476.76721625733  70500.76
8478.1870595175  70544.39
8479.60690277768  70085.82
8481.02674603785  69741.34
8482.44658929803  69437.69
8483.8664325582  69110.11
8485.28627581838  69088.69
8486.70611907856  68886.3
8488.12596233873  68890.4
8489.54580559891  68956.11
8490.96564885908  68790.13
8492.38549211926  68841.54
8493.80533537943  68987.7
8495.22517863961  68831.62
8496.64502189979  68858.85
8498.06486515996  69096.4
8499.48470842014  69230.66
8500.90455168031  69099.8
8502.32439494049  69094.11
8503.74423820066  69185.11
8505.16408146084  69341.45
8506.58392472102  69556.31
8508.00376798119  69574.25
8509.42361124137  69353.89
8510.84345450154  69161.55
8512.26329776172  69429.99
8513.68314102189  69289.14
8515.10298428207  69309.84
8516.52282754224  69899.25
8517.94267080242  70126.76
8519.3625140626  69745.74
8520.78235732277  69507.23
8522.20220058295  69109.76
8523.62204384312  68849.32
8525.0418871033  68754.19
8526.46173036348  68666.87
8527.88157362365  68626.65
8529.30141688383  68640.19
8530.721260144  68677.34
8532.14110340418  68701.25
8533.56094666435  68735.42
8534.98078992453  68649.8
8536.40063318471  68696.75
8537.82047644488  68849.37
8539.24031970506  68808.63
8540.66016296523  68582.67
8542.08000622541  68410.79
8543.49984948558  68445.27
8544.91969274576  68516.77
8546.33953600594  68572.17
8547.75937926611  68808.02
8549.17922252629  68849.44
8550.59906578646  68850.78
8552.01890904664  69025.6
8553.43875230682  68937.66
8554.85859556699  68735.77
8556.27843882716  68691.09
8557.69828208734  68685.36
8559.11812534752  68829.74
8560.53796860769  68958.3
8561.95781186787  69029.8
8563.37765512804  69063.88
8564.79749838822  68855.58
8566.21734164839  68803.92
8567.63718490857  68867.67
8569.05702816875  68768.68
8570.47687142892  68796.8
8571.8967146891  68808.3
8573.31655794927  68579.93
8574.73640120945  68582.68
8576.15624446962  68816.48
8577.5760877298  68498.04
8578.99593098997  68449.02
8580.41577425015  68463.19
8581.83561751033  68553.49
8583.2554607705  68491.97
8584.67530403068  68318.66
8586.09514729086  68546.63
8587.51499055103  68655.27
8588.93483381121  68507.37
8590.35467707138  68727.13
8591.77452033156  68736.84
8593.19436359173  68566.98
8594.61420685191  68511.7
8596.03405011209  68556.38
8597.45389337226  68664.52
8598.87373663243  68619.63
8600.29357989261  68688.27
8601.71342315279  68689.87
8603.13326641296  68847.26
8604.55310967314  68909.21
8605.97295293331  68956.33
8607.39279619349  69537.76
8608.81263945367  70141.78
